TEXTURE AT STRAIN =    1.0000
   0.616   2.692   0.594  <-- length of average ellipsoid axes for phase
   90.03   90.00   -0.00  <-- Euler angles of average ellipsoid axes for phase
B       500
  107.93  124.76   44.21   0.0020000
 -117.56   42.20   44.87   0.0020000
  167.75   36.94   44.99   0.0020000
  146.90   64.06   29.11   0.0020000
  144.44   84.53    5.03   0.0020000
 -106.62    0.69    0.00   0.0020000
   13.64   63.14  -30.53   0.0020000
 -171.62  174.88  -33.60   0.0020000
  -48.24   54.97  134.75   0.0020000
  -66.17  126.55 -135.10   0.0020000
  -15.13  168.03  -45.64   0.0020000
  -43.27  179.35    0.00   0.0020000
   40.93   55.17   44.50   0.0020000
   25.75  115.29  151.88   0.0020000
   52.99  116.50  -29.77   0.0020000
  -89.47   88.01  178.41   0.0020000
  121.93    1.33 -178.11   0.0020000
   85.92   67.51   24.27   0.0020000
   76.47   56.91 -139.36   0.0020000
  -54.56   17.62  136.43   0.0020000
 -142.84  121.89  -38.54   0.0020000
   -8.38  145.13 -134.95   0.0020000
  -77.13    2.01   47.01   0.0020000
  179.41   38.01 -135.08   0.0020000
  129.40   83.08   81.67   0.0020000
  111.92  118.48  -57.01   0.0020000
  -63.44   90.13  -89.41   0.0020000
   -7.42   67.62  155.60   0.0020000
  -86.13   90.04  -91.00   0.0020000
  -38.43  125.31  -44.45   0.0020000
  118.66   82.56   82.13   0.0020000
   19.51   54.01  -44.82   0.0020000
 -177.74  124.14  132.59   0.0020000
  -85.10   70.49 -110.74   0.0020000
  -42.37  126.16 -134.90   0.0020000
   33.90   57.35 -129.74   0.0020000
   22.42  131.39 -134.90   0.0020000
 -113.93   75.10 -165.32   0.0020000
 -122.97  113.52  115.68   0.0020000
   27.89   86.18   86.87   0.0020000
 -132.96  125.74   45.25   0.0020000
  114.54   88.55   91.15   0.0020000
  162.44   69.84 -158.48   0.0020000
  -60.14   54.61  134.86   0.0020000
  169.01   62.92 -120.75   0.0020000
 -153.66  100.59 -165.96   0.0020000
 -104.70   55.81   41.79   0.0020000
  129.57   55.69  133.37   0.0020000
  -50.69   55.34 -137.06   0.0020000
  -92.15   42.56 -135.19   0.0020000
  -96.34   18.58  -45.66   0.0020000
  -58.68  101.04  168.64   0.0020000
   37.44  125.09 -135.02   0.0020000
  166.72  161.77  -45.21   0.0020000
   70.78   54.79 -134.88   0.0020000
  -94.79  115.22  -27.96   0.0020000
   80.14  117.75  -58.19   0.0020000
  -26.01   52.30   44.77   0.0020000
  -86.69    0.48    0.00   0.0020000
   46.72   90.23   92.09   0.0020000
  170.30    1.04  -22.94   0.0020000
  -17.95  117.18  149.15   0.0020000
 -103.43   55.29 -134.69   0.0020000
  174.04  178.19  -57.46   0.0020000
  -53.07   55.49 -135.26   0.0020000
  164.70   54.80 -135.36   0.0020000
   19.87  140.54 -134.84   0.0020000
   41.07  125.27 -135.12   0.0020000
  -93.94   27.88   45.16   0.0020000
 -135.00   55.55 -136.73   0.0020000
   26.31   67.92   24.15   0.0020000
   -4.07   95.28  174.87   0.0020000
  113.32    6.51  136.43   0.0020000
 -117.44   77.50  -76.19   0.0020000
   62.02  175.17  128.67   0.0020000
  -57.11  178.73   26.22   0.0020000
    8.94  142.03 -134.89   0.0020000
  164.24   52.85   44.94   0.0020000
  134.54   82.50   83.50   0.0020000
    4.72  136.81   45.09   0.0020000
  178.90   65.43  152.72   0.0020000
   65.52    2.48  176.43   0.0020000
  -30.47  150.44  134.84   0.0020000
  -49.58  108.08 -161.12   0.0020000
   88.04    0.30    0.00   0.0020000
  154.48   77.03 -166.89   0.0020000
  179.30   59.69  143.98   0.0020000
   54.90   90.51   92.19   0.0020000
   11.60  124.99   45.88   0.0020000
   13.05   56.03  -47.35   0.0020000
  140.91    7.94   31.82   0.0020000
   74.71   15.13   43.86   0.0020000
   95.01   86.81  176.99   0.0020000
   29.67  125.82 -134.89   0.0020000
  -52.03   91.06   -0.57   0.0020000
 -173.87  139.80 -135.07   0.0020000
  124.91  126.72  134.98   0.0020000
   74.39   65.00  -62.28   0.0020000
  101.29  124.49  -46.27   0.0020000
 -175.97   84.74   83.92   0.0020000
   77.39   55.31  -43.90   0.0020000
  179.97   89.33   89.29   0.0020000
  129.29   55.44   43.28   0.0020000
  173.10  127.73  134.88   0.0020000
   40.29   90.35   90.01   0.0020000
  125.17  115.64  -61.01   0.0020000
   24.17    8.22   39.54   0.0020000
  -35.39   54.68  134.95   0.0020000
    0.28  125.01 -134.12   0.0020000
  -21.31   69.62 -111.97   0.0020000
   16.64   41.03 -134.92   0.0020000
   60.36  118.58   57.10   0.0020000
  -80.59  125.11  134.83   0.0020000
 -142.02   56.67 -139.02   0.0020000
  116.28  104.25 -104.67   0.0020000
  126.70  125.19  -44.65   0.0020000
   72.72   56.12   42.23   0.0020000
  -72.28   52.88  -45.09   0.0020000
 -143.61  114.12   26.59   0.0020000
   -0.12  149.79  -44.65   0.0020000
   29.47    7.39  -45.51   0.0020000
   12.81   90.53   90.13   0.0020000
   68.06   74.43  164.86   0.0020000
  -90.34   55.20  135.82   0.0020000
 -149.29  143.82   44.97   0.0020000
  107.49  135.99   44.87   0.0020000
   88.84   89.83  -89.69   0.0020000
 -167.92  125.90  -45.15   0.0020000
 -160.35   54.62 -134.96   0.0020000
  -36.23  176.50 -110.97   0.0020000
    8.00   88.32    0.88   0.0020000
 -123.87  116.61  119.98   0.0020000
   43.04   91.25  -91.59   0.0020000
  -94.00   55.11  -46.49   0.0020000
 -150.46  124.03 -137.91   0.0020000
  -94.40  124.28  -43.03   0.0020000
  -81.77   83.51   86.18   0.0020000
  164.69   65.75  153.18   0.0020000
  -74.38   86.03    4.51   0.0020000
   28.28  123.31  139.17   0.0020000
  -45.09  141.42  134.90   0.0020000
  143.16  127.53  134.67   0.0020000
 -176.75   85.90   90.60   0.0020000
   91.67   28.37   45.14   0.0020000
 -154.85   96.34   84.11   0.0020000
  148.41  124.56   43.96   0.0020000
  135.11   57.41  129.56   0.0020000
   94.88   90.23   92.52   0.0020000
   29.36   90.09  -89.93   0.0020000
   87.27   55.50  133.77   0.0020000
 -169.92  125.25   45.35   0.0020000
  -51.16  125.04  -44.83   0.0020000
   64.07   73.30   17.36   0.0020000
 -118.82   62.62   58.72   0.0020000
  -99.96   83.48  -97.25   0.0020000
  100.36  145.76  135.08   0.0020000
  -94.93  126.60  -45.46   0.0020000
   46.73  145.44   45.28   0.0020000
  158.67   91.00   88.41   0.0020000
  173.78   84.09 -171.55   0.0020000
   20.90  119.97   54.95   0.0020000
  116.00   67.93 -156.61   0.0020000
 -114.32  122.52   39.51   0.0020000
 -138.18  125.51 -135.22   0.0020000
   86.07   59.42   53.96   0.0020000
   50.39  125.08   44.93   0.0020000
  -31.68   39.65  135.10   0.0020000
   97.90    1.34  144.59   0.0020000
  103.80   90.00  179.59   0.0020000
  121.80   56.59  138.89   0.0020000
  -36.45  117.89 -121.88   0.0020000
  -63.83  169.04  -43.66   0.0020000
 -178.76    3.85 -173.50   0.0020000
 -102.50   92.59   -5.81   0.0020000
  -79.74  125.59   44.07   0.0020000
  139.61  115.81  -29.12   0.0020000
  165.53  124.92  134.86   0.0020000
 -153.69  116.22 -150.47   0.0020000
 -115.04  117.15  -59.30   0.0020000
  109.85   82.49  -83.51   0.0020000
    3.00   53.55   45.74   0.0020000
  114.54   89.35 -178.92   0.0020000
 -129.76  118.42  122.66   0.0020000
 -100.76   55.01 -134.71   0.0020000
  128.33  124.11  132.84   0.0020000
  115.03   55.02   43.52   0.0020000
  165.59   61.72 -147.54   0.0020000
   35.53  115.53   61.57   0.0020000
 -159.15  116.63 -149.83   0.0020000
  144.87   72.58  -71.74   0.0020000
 -150.90   62.14  -58.21   0.0020000
  143.08   54.57  -45.22   0.0020000
  -76.77  125.81  -44.81   0.0020000
  -78.05   90.00   89.43   0.0020000
  -58.73   74.89  164.05   0.0020000
   72.48   91.97    0.16   0.0020000
  171.77  175.08 -147.72   0.0020000
   24.85  178.49   66.62   0.0020000
   80.43  139.74 -134.88   0.0020000
 -119.64   55.98   41.97   0.0020000
   63.41  164.99  137.92   0.0020000
   25.21  125.34   44.76   0.0020000
   19.81  123.88 -132.13   0.0020000
   98.07   87.13  -92.58   0.0020000
  -30.79   94.26   -3.82   0.0020000
   43.16   64.88  -61.94   0.0020000
   99.67  159.98  -43.73   0.0020000
 -100.48   94.03    0.37   0.0020000
   97.40    9.79   48.11   0.0020000
  -65.70  125.31  -45.32   0.0020000
  -73.02   58.23 -128.30   0.0020000
  168.78   24.70   44.64   0.0020000
  -54.32  143.38 -135.13   0.0020000
   25.36   89.30  179.50   0.0020000
  176.68  179.37    0.00   0.0020000
  104.83   79.99  -78.34   0.0020000
   22.67  125.01 -135.05   0.0020000
   -4.15   32.83 -134.87   0.0020000
   15.54   68.10 -156.05   0.0020000
 -153.99   73.91  163.16   0.0020000
   72.28  140.59  -44.83   0.0020000
 -159.35   88.76    2.65   0.0020000
 -167.79   55.09 -135.68   0.0020000
  -32.87  126.50  -45.03   0.0020000
  -45.11   89.48  179.51   0.0020000
  132.01   64.27 -151.28   0.0020000
  -30.28   95.54 -177.98   0.0020000
  -19.63   71.03   20.34   0.0020000
 -140.27   46.38 -135.14   0.0020000
 -147.97   89.88  -90.17   0.0020000
  -71.07   88.37  -91.07   0.0020000
  -10.83   84.45    6.02   0.0020000
  158.14  178.69   78.86   0.0020000
  140.77   55.59   46.95   0.0020000
  167.71  139.43  134.91   0.0020000
 -155.13   91.08   91.58   0.0020000
  165.54   98.28  -98.64   0.0020000
 -111.23   98.05  171.57   0.0020000
   60.33   78.49 -101.71   0.0020000
 -133.48   90.08 -179.19   0.0020000
   21.86   88.70   -0.29   0.0020000
   58.26   64.70 -117.96   0.0020000
  -10.82  134.43   45.07   0.0020000
  -51.46  176.65  -76.22   0.0020000
  -34.98   89.17  -89.98   0.0020000
  -67.48  120.59   53.84   0.0020000
 -121.92  116.05 -150.85   0.0020000
  111.99  126.22 -135.03   0.0020000
 -114.10  125.04   45.26   0.0020000
  -76.65   92.59  179.12   0.0020000
  -96.51   91.97   90.31   0.0020000
  119.50   87.96  -89.68   0.0020000
  -93.62   81.12 -172.01   0.0020000
  -38.04   83.60  176.44   0.0020000
   -2.76   54.52  134.76   0.0020000
  140.45   46.59   45.00   0.0020000
  -50.12  148.07 -135.61   0.0020000
   32.85  123.34   41.25   0.0020000
   19.52  126.16  -44.98   0.0020000
  119.21  124.65 -134.54   0.0020000
 -121.51   81.21 -171.53   0.0020000
  -86.29   89.59  -88.44   0.0020000
  -47.99  133.24   45.00   0.0020000
  123.55   50.44  134.88   0.0020000
 -147.48  145.91  135.01   0.0020000
  -20.21   54.20  -45.06   0.0020000
    8.74  161.01   44.63   0.0020000
  -93.15  176.68    9.02   0.0020000
 -152.38   97.06  -80.55   0.0020000
  -58.46  115.84 -118.85   0.0020000
  -43.55  124.91  134.57   0.0020000
 -174.09  132.85 -135.04   0.0020000
 -111.64  123.57  -48.56   0.0020000
  -80.74  123.42  131.32   0.0020000
  -90.88  125.18  134.85   0.0020000
    8.36  125.41  -45.57   0.0020000
 -126.57  122.90  -40.09   0.0020000
 -168.93  113.70   26.16   0.0020000
  101.68  148.08  135.08   0.0020000
   48.66  125.17   45.08   0.0020000
 -110.36  125.28  -45.37   0.0020000
  153.30   54.91  -44.93   0.0020000
 -102.14  126.71 -135.16   0.0020000
   75.10   86.28   91.51   0.0020000
 -112.28  176.19 -150.13   0.0020000
  -99.94  124.98  -45.09   0.0020000
   60.22  112.94  115.09   0.0020000
  146.99   63.23   59.78   0.0020000
  -30.30  120.19 -144.50   0.0020000
  -16.30    9.85 -134.56   0.0020000
  -81.94  125.43   45.39   0.0020000
   15.59   53.43  135.14   0.0020000
   62.58   63.37 -149.93   0.0020000
  -75.90   63.23   30.21   0.0020000
  176.17  176.48  -55.63   0.0020000
  -18.26   55.10  135.78   0.0020000
  140.10  118.53 -146.94   0.0020000
  -93.91   60.04  144.69   0.0020000
 -143.73  143.73  134.98   0.0020000
 -156.28  124.07  138.04   0.0020000
   28.19   79.25  -10.46   0.0020000
   21.97   49.45  135.05   0.0020000
    0.80   32.21   45.13   0.0020000
 -155.42   93.88    0.87   0.0020000
  -87.15  179.52    0.00   0.0020000
  -38.07   93.74  -95.74   0.0020000
  -50.72   89.50  179.97   0.0020000
 -120.68   85.14  175.18   0.0020000
  167.58  109.27 -159.39   0.0020000
  -97.15   90.35   89.85   0.0020000
   40.55  122.31  129.25   0.0020000
  -52.74  124.90  134.78   0.0020000
 -179.99   54.64  134.17   0.0020000
 -172.08  125.42  135.58   0.0020000
 -149.42   49.25 -135.32   0.0020000
   60.49   95.14 -174.70   0.0020000
  -16.00   86.45   85.41   0.0020000
 -110.45   62.39   58.39   0.0020000
  -49.95   71.65 -160.52   0.0020000
 -171.50   90.68    2.46   0.0020000
   29.19  143.40   45.22   0.0020000
  107.78   89.33  -91.09   0.0020000
  -40.19   87.19  175.94   0.0020000
  107.91  125.35 -135.02   0.0020000
  -11.58    3.01 -179.20   0.0020000
  -36.27   90.03  -90.69   0.0020000
    4.13  126.48  134.79   0.0020000
   21.24  119.61   34.70   0.0020000
  107.32   89.29   -0.49   0.0020000
  173.40   67.44   24.56   0.0020000
  -57.19  114.40   63.14   0.0020000
   43.77   90.53  -89.53   0.0020000
  101.35  176.39   56.89   0.0020000
  -75.96   36.57  -44.89   0.0020000
   22.94  107.49   71.74   0.0020000
 -111.24   87.47   90.92   0.0020000
   10.51  139.48  135.12   0.0020000
   76.85  103.90 -165.63   0.0020000
  -25.37  116.42 -119.74   0.0020000
  168.00  124.18  -43.01   0.0020000
   88.36   18.70   44.34   0.0020000
   77.09  123.22 -138.94   0.0020000
   99.25   54.52   45.35   0.0020000
   32.60  172.58   36.14   0.0020000
  104.04  113.73   26.11   0.0020000
 -170.95  126.30 -135.36   0.0020000
   74.01   88.88    0.43   0.0020000
 -139.48  149.98   44.97   0.0020000
   47.93   55.26 -136.09   0.0020000
 -141.31  125.08   44.50   0.0020000
  117.02  125.70 -134.40   0.0020000
 -114.91  122.37   50.03   0.0020000
  -30.87  125.39  135.02   0.0020000
   93.98   91.06  -90.97   0.0020000
  107.49    7.80 -138.80   0.0020000
 -104.05   90.17  179.76   0.0020000
   10.99  101.49  -11.81   0.0020000
  -92.49   55.32   46.21   0.0020000
 -139.19  119.12   33.85   0.0020000
 -103.40   39.27 -135.15   0.0020000
  153.21   89.65   90.58   0.0020000
  -54.47   92.15   87.85   0.0020000
  158.75   97.90  173.60   0.0020000
 -154.69  122.13  -51.13   0.0020000
  129.04   60.52 -145.69   0.0020000
  161.59  174.22  -10.23   0.0020000
   22.39   90.83  -94.54   0.0020000
  118.38   55.61  135.26   0.0020000
  -19.64  177.34   32.00   0.0020000
  -50.14   91.77 -178.52   0.0020000
  114.02  140.77  -44.99   0.0020000
  130.81   55.20  136.59   0.0020000
 -124.57   55.07  -45.82   0.0020000
  -94.78    6.24  -54.73   0.0020000
    9.93  106.82  -73.05   0.0020000
   67.12   88.19  -89.38   0.0020000
 -115.12  149.74 -135.00   0.0020000
  -16.90   57.83  -50.90   0.0020000
   52.11   39.65  -44.96   0.0020000
  -37.66   65.77   63.16   0.0020000
 -101.52   66.46  -64.35   0.0020000
   22.48  125.80  134.86   0.0020000
 -177.57  138.36  134.94   0.0020000
  163.90   42.56  134.96   0.0020000
  -98.53  124.04  -42.36   0.0020000
   35.67   90.09  179.86   0.0020000
    7.18  124.59  -44.56   0.0020000
   88.76   54.67 -134.96   0.0020000
  172.73  129.32  134.93   0.0020000
  117.17  107.59  108.57   0.0020000
  134.37  168.43  135.29   0.0020000
  129.85   92.08  -85.18   0.0020000
 -122.74   92.82  -86.56   0.0020000
  145.43   54.30  135.18   0.0020000
   38.08   85.85   85.76   0.0020000
 -170.19  127.94 -135.03   0.0020000
  -68.20  128.40  -45.22   0.0020000
 -169.95   54.95 -134.09   0.0020000
   77.94   54.44   44.81   0.0020000
   68.60   57.58  -50.57   0.0020000
   43.99   15.02  -46.05   0.0020000
 -163.16   30.27  134.57   0.0020000
 -165.44   94.15    5.04   0.0020000
 -129.62   42.13  -45.16   0.0020000
   56.52   63.93 -150.71   0.0020000
 -142.29  123.33  -48.58   0.0020000
 -171.93   98.43  -94.72   0.0020000
 -118.33  118.54 -147.22   0.0020000
 -114.76   61.01  146.28   0.0020000
  -86.38   56.17   47.37   0.0020000
 -163.23  121.22   52.47   0.0020000
  124.33  142.86  -45.07   0.0020000
  -41.84   64.59 -118.46   0.0020000
    6.48   89.94  -90.57   0.0020000
  137.25  173.62  -82.72   0.0020000
  -17.81   56.59 -138.66   0.0020000
  -69.03  115.02   27.57   0.0020000
  -52.52   67.96 -156.04   0.0020000
  155.14   53.40 -135.19   0.0020000
  123.89  179.55    0.00   0.0020000
   64.13  125.91  135.20   0.0020000
  109.49   89.81 -179.17   0.0020000
    9.58  125.16 -135.69   0.0020000
  113.59  129.41 -134.85   0.0020000
   -5.16   56.08   47.70   0.0020000
 -107.10  111.52  156.88   0.0020000
 -156.06  108.77  -19.69   0.0020000
 -159.09  118.29  -57.42   0.0020000
  -82.54  146.79  134.88   0.0020000
    6.63   63.48   30.17   0.0020000
  174.41  108.73  109.85   0.0020000
   60.47   55.93 -137.39   0.0020000
 -173.83  134.95 -135.12   0.0020000
  -50.07   37.08 -134.79   0.0020000
  155.50  116.90  -30.71   0.0020000
   30.22    1.25 -136.06   0.0020000
   60.64   54.78  135.00   0.0020000
 -111.16   48.25  -44.67   0.0020000
  -74.54   57.09  139.59   0.0020000
 -146.34   89.44    1.65   0.0020000
   94.53   97.93   97.70   0.0020000
   54.00  111.47  -23.04   0.0020000
   -7.21   60.08   35.40   0.0020000
    2.42  120.98  126.89   0.0020000
   57.48  179.01 -135.27   0.0020000
  -67.30  129.45  134.89   0.0020000
  172.97    4.23 -150.37   0.0020000
   85.99  111.96  -66.22   0.0020000
  -68.94   95.77  174.65   0.0020000
   99.86   43.94  134.91   0.0020000
 -166.79    8.08  -43.95   0.0020000
   70.33  124.88   45.28   0.0020000
  115.97   44.92   45.03   0.0020000
  169.18  114.19 -153.14   0.0020000
 -165.50   36.88 -135.16   0.0020000
  120.17  123.94 -132.40   0.0020000
  -94.53   54.83  -45.19   0.0020000
 -105.76   64.04  119.00   0.0020000
  155.24   87.30   86.78   0.0020000
  -71.42   59.67 -144.13   0.0020000
   34.37  115.19  118.21   0.0020000
 -166.81   63.88   60.52   0.0020000
   -2.80  107.89  -18.88   0.0020000
  -11.74  127.14   45.05   0.0020000
   42.27   55.48  133.23   0.0020000
    9.42   94.33   90.77   0.0020000
 -151.19    1.79 -138.47   0.0020000
  -44.24   60.45  145.23   0.0020000
  -36.01   60.74   34.08   0.0020000
    4.84  135.13  135.12   0.0020000
 -126.54  126.04  -45.06   0.0020000
  153.43    6.56  132.46   0.0020000
  -36.22  115.78 -118.80   0.0020000
   50.45  123.36 -131.21   0.0020000
 -129.44  115.96  -60.94   0.0020000
   27.83  171.49  132.10   0.0020000
  -62.85  127.57   44.73   0.0020000
  -75.56   61.19   33.38   0.0020000
 -125.56  137.91  -45.07   0.0020000
 -164.13   52.85 -135.06   0.0020000
    5.74   55.10  135.65   0.0020000
   36.81   89.24    0.19   0.0020000
 -162.20  119.18 -124.12   0.0020000
   65.20   45.97  -44.72   0.0020000
  136.70    4.83 -138.95   0.0020000
  112.26   89.23 -179.18   0.0020000
 -103.25   53.55  134.90   0.0020000
  -99.53   88.99  178.61   0.0020000
  113.19  119.00  123.80   0.0020000
  148.65  171.62 -134.04   0.0020000
 -126.14   94.60    3.74   0.0020000
 -135.16   84.84   85.23   0.0020000
   54.03   64.80   62.06   0.0020000
  154.03  176.43  -42.99   0.0020000
 -169.25  122.55  -41.08   0.0020000
  -57.04   96.68   -0.03   0.0020000
  105.24   88.69   -1.32   0.0020000
   27.04  124.90   45.80   0.0020000
   -8.12  125.21   45.26   0.0020000
 -124.41   93.69  -85.18   0.0020000
