TEXTURE AT STRAIN =    1.0000
   0.992   2.495   0.397  <-- length of average ellipsoid axes for phase
   90.04    0.06    0.00  <-- Euler angles of average ellipsoid axes for phase
B       500
   94.77  119.31   47.05   0.0010000
 -148.90   55.01   54.10   0.0010000
  164.77   36.79   46.45   0.0010000
  148.94   62.36   31.17   0.0010000
  139.12   69.63   24.34   0.0010000
   17.02   12.00 -139.05   0.0010000
   24.50   58.13  -34.47   0.0010000
  175.43  147.96  -45.74   0.0010000
  -33.59   58.77  124.37   0.0010000
  -70.84  122.63 -133.80   0.0010000
  -13.89  147.78  -47.98   0.0010000
    0.74  168.64   45.21   0.0010000
   33.08   58.42   55.29   0.0010000
    0.80  106.01  157.72   0.0010000
   84.96  118.03   -8.06   0.0010000
  -96.75   77.99  171.61   0.0010000
  175.23   18.64  135.14   0.0010000
   93.70   61.59   32.14   0.0010000
   89.61   60.61 -136.96   0.0010000
  -85.08   25.75  175.16   0.0010000
 -154.76  131.15  -48.88   0.0010000
  -12.86  143.17 -135.92   0.0010000
  -38.74    0.51    0.00   0.0010000
  178.35   37.32 -134.98   0.0010000
  131.41  111.47   65.87   0.0010000
   96.55  118.65  -41.90   0.0010000
  -52.50   82.06  -81.64   0.0010000
  -13.57   66.63 -171.66   0.0010000
  -78.70   92.59  -94.04   0.0010000
  -29.20  124.27  -35.76   0.0010000
  124.57  105.37   75.41   0.0010000
   21.30   45.87  -41.87   0.0010000
 -159.19  132.87  131.18   0.0010000
  -96.42   62.38 -126.18   0.0010000
  -27.41  127.29 -127.74   0.0010000
   31.36   59.05 -123.40   0.0010000
   20.20  136.48 -136.85   0.0010000
  -97.78   62.26  151.00   0.0010000
 -118.79  115.15  116.46   0.0010000
   38.17   70.52   66.58   0.0010000
 -147.98  129.61   40.73   0.0010000
  122.76   71.94  105.86   0.0010000
  149.09   62.22 -149.57   0.0010000
  -43.95   58.18  126.04   0.0010000
 -159.48   49.99 -128.82   0.0010000
 -154.89  116.07 -148.21   0.0010000
  -94.74   54.25   21.23   0.0010000
  141.41   63.06  121.05   0.0010000
  -34.51   61.06 -148.18   0.0010000
  -51.18   36.68  163.49   0.0010000
  -18.22   29.87 -131.05   0.0010000
  -62.20  114.21  155.71   0.0010000
   30.74  122.67 -144.76   0.0010000
  165.73  146.58  -47.76   0.0010000
   79.59   60.74 -129.07   0.0010000
  -85.29  118.65  -37.91   0.0010000
   76.35  117.78  -55.85   0.0010000
  -22.71   47.13   40.82   0.0010000
  -53.66    2.41  -26.36   0.0010000
   49.31  108.49  109.52   0.0010000
 -174.12   21.46  -45.97   0.0010000
  -28.67  122.21  145.88   0.0010000
  -99.99   61.42 -128.03   0.0010000
 -175.30  152.98  -43.83   0.0010000
  -48.17   62.10 -147.78   0.0010000
  156.46   50.59 -140.63   0.0010000
   18.28  139.76 -135.31   0.0010000
   30.00  123.79 -144.16   0.0010000
 -168.01   34.24  131.37   0.0010000
 -145.78   56.84 -126.42   0.0010000
   25.85  112.12   26.46   0.0010000
  -24.60  114.59  153.35   0.0010000
   63.59    5.06 -175.26   0.0010000
 -112.88  114.97  -62.49   0.0010000
  -12.66  162.28   42.42   0.0010000
  -39.45  167.62   33.91   0.0010000
   13.64  142.43 -134.07   0.0010000
  160.88   43.06   43.59   0.0010000
  124.70   69.06  109.48   0.0010000
   11.70  141.48   45.61   0.0010000
 -156.69   54.27  144.52   0.0010000
   17.22   26.30 -139.50   0.0010000
  -22.15  138.33  136.50   0.0010000
  -59.09  106.02  167.42   0.0010000
   40.98    1.70   43.03   0.0010000
  144.90   66.12 -152.54   0.0010000
 -179.41   80.98  140.72   0.0010000
   54.05  109.69  109.32   0.0010000
   16.27  132.38   42.57   0.0010000
   20.57   54.42  -38.94   0.0010000
 -157.33   18.48  -37.77   0.0010000
  156.48   35.95  -43.96   0.0010000
   87.97   79.27  171.59   0.0010000
   23.82  131.57 -139.38   0.0010000
  -50.21  106.66  -17.03   0.0010000
 -166.87  142.59 -133.82   0.0010000
  142.63  126.92  140.18   0.0010000
   89.68   61.62  -47.64   0.0010000
   91.46  119.12  -44.56   0.0010000
 -155.14   62.27   59.90   0.0010000
   78.00   61.47  -36.66   0.0010000
 -177.42   86.82   86.91   0.0010000
  143.91   61.48   31.95   0.0010000
  165.22  139.57  134.62   0.0010000
   43.59   95.99   96.04   0.0010000
  111.93   67.23  -59.27   0.0010000
   17.47   34.50   43.14   0.0010000
  -26.69   51.94  128.54   0.0010000
  -15.22  132.80 -132.28   0.0010000
  -23.61  114.08 -118.22   0.0010000
   17.79   40.11 -134.68   0.0010000
   76.04  123.64   54.07   0.0010000
  -85.81  119.25  137.69   0.0010000
 -151.93   52.62 -128.85   0.0010000
  116.64  114.29 -114.66   0.0010000
  145.21  120.90  -34.04   0.0010000
   86.90   60.71   45.98   0.0010000
  -67.25   59.75  -52.45   0.0010000
 -143.68  114.84   28.63   0.0010000
    6.15  143.60  -43.45   0.0010000
   19.39   34.86  -46.03   0.0010000
   28.77   95.53   95.89   0.0010000
   77.65   62.46  148.64   0.0010000
  -96.15   61.02  139.85   0.0010000
 -158.91  137.34   42.93   0.0010000
   81.63  140.03    0.35   0.0010000
   86.55   89.80  -88.47   0.0010000
 -160.83  136.02  -46.89   0.0010000
 -156.57   49.35 -130.14   0.0010000
   20.32  157.62  -40.23   0.0010000
   19.79   84.54   -4.16   0.0010000
 -124.44  115.65  118.80   0.0010000
   44.34   85.70  -94.23   0.0010000
  -84.31   61.00  -52.01   0.0010000
 -151.56  124.50 -144.40   0.0010000
  -86.13  119.07  -41.56   0.0010000
  -86.56   64.61  108.11   0.0010000
  169.28  101.92  153.08   0.0010000
  -67.97   66.42   24.67   0.0010000
   20.92  134.04  132.91   0.0010000
  -26.25  132.29  139.43   0.0010000
  150.80  134.28  136.81   0.0010000
 -169.94   78.69   83.66   0.0010000
   13.99   25.76  129.82   0.0010000
 -142.96  103.00  104.79   0.0010000
  149.82  123.13   54.30   0.0010000
  144.98   61.98  121.40   0.0010000
  102.80   84.41   97.72   0.0010000
   39.41   92.81  -87.21   0.0010000
   92.60   60.97  132.83   0.0010000
 -166.04  135.41   43.66   0.0010000
  -37.49  119.89  -33.49   0.0010000
   82.47   67.70  -14.32   0.0010000
 -114.64   63.77   61.43   0.0010000
 -106.67   65.18 -118.05   0.0010000
 -175.56  149.16 -135.62   0.0010000
 -106.34  118.37  -56.60   0.0010000
   25.66  133.28   40.31   0.0010000
  144.52  104.68   71.59   0.0010000
  160.53   64.46 -149.15   0.0010000
    1.34  133.63   45.90   0.0010000
  105.56   62.49 -150.99   0.0010000
 -111.78  117.25   31.01   0.0010000
 -151.56  126.02 -142.93   0.0010000
   80.66   61.49   52.35   0.0010000
   36.06  120.44   34.04   0.0010000
  -22.02   44.09  132.57   0.0010000
    6.04    4.95 -133.60   0.0010000
  119.46   94.90  174.85   0.0010000
  115.76   57.01  132.98   0.0010000
  -35.13  116.54 -120.28   0.0010000
   17.41  164.32   48.13   0.0010000
  154.48   25.12 -133.72   0.0010000
 -109.83   67.46  -24.21   0.0010000
  -92.52  119.74   38.13   0.0010000
  143.70  115.09  -29.40   0.0010000
  156.72  127.80  141.00   0.0010000
 -148.55  119.92 -147.71   0.0010000
 -112.54  116.51  -60.90   0.0010000
  108.31   64.12  -61.43   0.0010000
   15.56   40.95   46.12   0.0010000
  124.21   73.94 -165.75   0.0010000
 -133.16  116.17  119.35   0.0010000
  -99.65   61.17 -128.35   0.0010000
  134.77  123.69  141.07   0.0010000
  119.54   62.53   30.84   0.0010000
  152.74   55.64 -144.45   0.0010000
   23.96   77.72   67.65   0.0010000
 -151.12  121.05 -146.62   0.0010000
  141.14   68.11  -63.84   0.0010000
 -164.32   47.80  -44.77   0.0010000
  152.25   53.70  -52.81   0.0010000
  -74.10  118.84  -35.12   0.0010000
  -62.80   94.98   85.03   0.0010000
  -61.23  113.19  156.72   0.0010000
   67.64  108.51   16.23   0.0010000
 -173.56  148.23 -133.81   0.0010000
    1.39  154.92   45.30   0.0010000
   62.63  123.47 -142.16   0.0010000
 -113.77   49.35   31.34   0.0010000
  144.82  142.69 -138.12   0.0010000
   25.37  128.48   38.62   0.0010000
   24.90  125.37 -142.35   0.0010000
   95.02   83.19  -94.86   0.0010000
  -39.30  109.47  -23.48   0.0010000
   42.94  105.81  -68.88   0.0010000
  179.13  145.87   43.85   0.0010000
  -98.94  116.07   29.40   0.0010000
   18.84   29.82  131.49   0.0010000
  -75.33  120.91  -42.14   0.0010000
  -84.31   57.92 -125.49   0.0010000
  165.07   36.42   46.09   0.0010000
  -27.52  130.87 -129.42   0.0010000
   38.68   77.38  165.87   0.0010000
   23.06  176.76 -147.17   0.0010000
  104.02   63.21  -57.00   0.0010000
   26.51  125.54 -142.91   0.0010000
   -8.09   35.67 -134.14   0.0010000
  -13.41   64.93 -152.07   0.0010000
 -145.31   65.51  151.87   0.0010000
   50.65  139.79  -37.46   0.0010000
 -153.77  102.22   16.50   0.0010000
 -158.43   52.26 -129.50   0.0010000
  -24.26  132.01  -40.72   0.0010000
  -45.04   89.69 -179.63   0.0010000
  137.81   65.63 -151.89   0.0010000
  -38.80  111.27  154.89   0.0010000
  -32.02   63.34   29.77   0.0010000
 -154.29   48.19 -130.61   0.0010000
 -139.42   84.79  -95.16   0.0010000
  -61.20   85.62  -86.59   0.0010000
  -29.08   64.42   28.37   0.0010000
 -157.97  170.51  137.36   0.0010000
  152.99   51.16   39.42   0.0010000
  163.70  141.49  134.15   0.0010000
 -142.36  105.43  109.03   0.0010000
  148.94  115.65 -118.68   0.0010000
 -119.89   77.28  168.62   0.0010000
   61.90   66.03 -113.90   0.0010000
 -133.15  101.44 -168.35   0.0010000
   36.78   77.03  -15.76   0.0010000
   64.22   63.73 -116.80   0.0010000
  -16.40  140.20   44.89   0.0010000
  -18.84  147.24  -47.14   0.0010000
  -42.33   78.87  -78.73   0.0010000
  -68.99  117.15   59.66   0.0010000
 -117.64  115.81 -152.14   0.0010000
  103.61  121.38 -133.70   0.0010000
 -100.79  119.36   39.55   0.0010000
  -72.33  112.68  157.09   0.0010000
 -100.76  104.12   98.31   0.0010000
  123.84   72.10  -74.24   0.0010000
  -86.74   64.05 -155.87   0.0010000
  -48.85   67.34 -155.69   0.0010000
  -15.00   43.59  133.71   0.0010000
  154.96   49.25   39.60   0.0010000
  -89.27  141.19 -178.69   0.0010000
   30.84  120.83   33.64   0.0010000
   20.99  134.50  -47.75   0.0010000
  113.94  117.81 -123.01   0.0010000
 -111.51   68.27  159.37   0.0010000
  -78.42   85.00  -84.28   0.0010000
  -27.49  127.62   52.29   0.0010000
  149.11   56.66  124.83   0.0010000
 -154.96  136.57  132.97   0.0010000
  -21.53   45.98  -47.97   0.0010000
   13.06  145.33   47.07   0.0010000
 -148.32  145.98  -43.12   0.0010000
 -148.65  116.21  -60.25   0.0010000
  -62.95  115.77 -117.31   0.0010000
  -34.20  120.79  145.81   0.0010000
 -166.12  140.92 -134.32   0.0010000
 -109.79  117.62  -58.14   0.0010000
  -89.05  119.01  135.32   0.0010000
  -91.20  119.33  134.20   0.0010000
   20.38  134.44  -47.90   0.0010000
 -126.50  134.01  -34.95   0.0010000
 -152.39  122.19   33.55   0.0010000
 -172.09  148.74 -134.29   0.0010000
   33.87  122.17   35.29   0.0010000
 -106.14  118.92  -54.16   0.0010000
  152.56   54.48  -53.02   0.0010000
 -101.85  119.56 -141.49   0.0010000
   79.41   66.59   66.99   0.0010000
  176.27  155.34  134.35   0.0010000
  -95.65  119.08  -48.73   0.0010000
   63.57  115.23  115.94   0.0010000
  157.61  104.10   60.54   0.0010000
  -26.08  125.15 -127.88   0.0010000
  -14.51   32.11 -131.89   0.0010000
  -76.82  118.73   54.23   0.0010000
   19.61   43.83  136.95   0.0010000
   86.52   60.68 -137.45   0.0010000
  -77.75   62.24   33.32   0.0010000
 -172.37  149.91  -42.99   0.0010000
  -20.97   47.48  131.92   0.0010000
  147.22  122.10 -126.57   0.0010000
  -99.38   61.60  142.57   0.0010000
 -157.10  135.35  131.88   0.0010000
 -163.68  140.28  136.59   0.0010000
   36.05   66.59  -27.10   0.0010000
   20.28   43.11  136.58   0.0010000
    0.20   35.48   45.25   0.0010000
 -143.45  110.69   24.39   0.0010000
  -46.18  176.86   34.69   0.0010000
  -40.51  110.36 -114.67   0.0010000
  -47.44   82.89 -172.69   0.0010000
 -121.12   67.72  158.68   0.0010000
 -163.22  117.27 -150.40   0.0010000
 -108.86   90.48   89.71   0.0010000
   33.61  118.80  122.06   0.0010000
  -48.38  119.42  146.10   0.0010000
  163.80   43.30  133.43   0.0010000
 -174.36  137.39  134.86   0.0010000
 -152.96   44.08 -133.72   0.0010000
   59.87  112.56 -158.23   0.0010000
  -12.31   99.46   71.22   0.0010000
 -110.66   63.23   60.05   0.0010000
  -52.51   66.15 -153.68   0.0010000
 -159.28  109.65   23.19   0.0010000
   20.60  137.68   43.26   0.0010000
  122.17   96.26  -96.73   0.0010000
  -42.41  105.50  162.28   0.0010000
   98.18  119.69 -131.53   0.0010000
   24.39   21.55  131.20   0.0010000
  -42.79  100.03 -100.01   0.0010000
   14.29  138.52  134.34   0.0010000
   28.78  122.42   34.51   0.0010000
  121.53   88.95    0.86   0.0010000
  154.95   58.39   33.68   0.0010000
  -61.20  115.34   62.88   0.0010000
   46.10  103.32  -76.24   0.0010000
  178.83  160.23  134.72   0.0010000
 -141.74   38.14   36.81   0.0010000
   36.78  108.86  112.38   0.0010000
 -112.68   72.20   75.01   0.0010000
   15.46  141.70  135.90   0.0010000
   72.36  115.97 -150.42   0.0010000
  -31.22  119.16 -122.00   0.0010000
  156.71  127.20  -38.35   0.0010000
  165.13   31.14  -41.31   0.0010000
   75.08  118.00 -145.76   0.0010000
   88.85   60.49   46.98   0.0010000
   28.05  151.74   43.93   0.0010000
   88.59  116.86   38.66   0.0010000
 -161.82  137.27 -136.48   0.0010000
   62.05   86.07   -3.03   0.0010000
 -156.13  136.75   41.69   0.0010000
   33.06   53.96 -128.42   0.0010000
 -149.38  122.76   35.01   0.0010000
  137.71  118.91 -122.34   0.0010000
  -99.51  117.12   39.84   0.0010000
  -25.51  128.99  140.95   0.0010000
  103.13   99.18  -96.82   0.0010000
 -171.72   22.20  133.19   0.0010000
 -119.61   88.26  177.98   0.0010000
  -13.73  112.73  -26.11   0.0010000
  -98.72   61.21   51.86   0.0010000
 -144.40  116.25   30.24   0.0010000
 -128.39   45.06 -138.91   0.0010000
  140.80   78.71  101.66   0.0010000
  -54.60  110.74   69.88   0.0010000
  146.50  114.94  151.88   0.0010000
 -150.96  123.03  -55.19   0.0010000
  133.93   63.60 -150.35   0.0010000
 -156.40  148.99   44.04   0.0010000
   29.05   64.00 -119.13   0.0010000
  108.43   62.46  123.22   0.0010000
   -5.12  152.04   43.43   0.0010000
  -47.35   93.90  176.15   0.0010000
  148.45  127.54  -36.83   0.0010000
  145.87   49.02  132.72   0.0010000
 -130.23   56.19  -40.07   0.0010000
  -20.22   31.12 -131.97   0.0010000
   26.29  123.50  -56.87   0.0010000
   58.58   80.00  -97.87   0.0010000
 -129.94  149.45 -125.18   0.0010000
  -26.30   53.31  -52.78   0.0010000
   31.33   46.99  -41.97   0.0010000
  -58.83   68.39  109.13   0.0010000
  -89.23   61.49  -69.05   0.0010000
   22.83  132.04  130.68   0.0010000
 -170.24  142.10  135.63   0.0010000
  162.20   40.38  134.59   0.0010000
  -87.68  119.29  -41.08   0.0010000
   41.70   89.02  179.12   0.0010000
   10.75  118.21  -49.84   0.0010000
   90.92   60.55 -135.84   0.0010000
  164.67  139.85  134.55   0.0010000
  118.65   69.29  109.83   0.0010000
  152.22  142.60  136.77   0.0010000
  129.54   68.55  -66.67   0.0010000
 -122.48  111.73  -69.39   0.0010000
  155.17   48.70  130.46   0.0010000
   43.49   69.58   66.27   0.0010000
 -163.24  138.89 -135.20   0.0010000
  -80.08  124.75  -54.83   0.0010000
 -157.98   47.74 -130.83   0.0010000
   90.06   60.38   43.06   0.0010000
   84.95   60.35  -44.48   0.0010000
   27.81   42.45  -43.02   0.0010000
 -158.46   39.61  134.56   0.0010000
 -150.07  115.32   28.25   0.0010000
 -152.59   51.43  -38.42   0.0010000
   85.54   62.78 -180.00   0.0010000
 -147.75  118.63  -57.94   0.0010000
 -154.04  115.93  -63.91   0.0010000
 -115.13  116.47 -151.77   0.0010000
 -112.74   63.30  150.70   0.0010000
  -91.96   61.15   46.72   0.0010000
 -163.30  120.00   39.09   0.0010000
  152.00  130.18  -39.08   0.0010000
  -57.55   81.71  -90.24   0.0010000
   16.36   88.45  -93.47   0.0010000
  165.58  146.64  -48.21   0.0010000
  -25.86   52.56 -142.27   0.0010000
  -88.57  118.44   42.34   0.0010000
  -54.44   65.64 -153.12   0.0010000
  157.54   47.10 -139.04   0.0010000
   -3.26  167.45 -134.22   0.0010000
   69.97  122.92  134.55   0.0010000
  123.11   78.36 -169.57   0.0010000
   21.72  132.52 -138.95   0.0010000
  142.81  120.70 -123.51   0.0010000
    8.96   49.83   47.21   0.0010000
  -87.07  117.61  145.48   0.0010000
 -144.60  115.53   27.79   0.0010000
 -150.70  122.26  -55.90   0.0010000
   -1.66  177.97 -143.65   0.0010000
  -22.72   52.12   37.97   0.0010000
  169.17  107.40   85.63   0.0010000
   74.46   59.43 -131.54   0.0010000
 -168.46  141.09 -135.06   0.0010000
  -81.18   36.31  -98.93   0.0010000
  148.97  119.73  -32.52   0.0010000
   22.10   17.51 -142.36   0.0010000
   63.88   58.96  141.26   0.0010000
 -147.36   54.72  -24.32   0.0010000
  -87.51   60.14  138.06   0.0010000
 -139.03  101.52   11.73   0.0010000
   83.71  115.89  120.55   0.0010000
   56.19   85.87   -5.00   0.0010000
  -18.14   60.12   36.11   0.0010000
   23.22  128.23  128.58   0.0010000
   -5.33  177.84  148.12   0.0010000
  -74.00  124.69  130.15   0.0010000
  163.81   31.09 -132.38   0.0010000
   78.44  117.33  -55.80   0.0010000
  -65.71  113.95  155.61   0.0010000
  132.08   53.50  107.01   0.0010000
 -166.30   31.33  -48.26   0.0010000
   79.89  118.78   38.43   0.0010000
  147.39   56.47   35.07   0.0010000
 -167.04  112.42 -150.78   0.0010000
 -163.87   37.48 -136.14   0.0010000
  121.10  117.52 -121.59   0.0010000
  -89.46   60.68  -45.73   0.0010000
  -88.89   61.11  130.31   0.0010000
  148.33   94.45   84.53   0.0010000
  -71.32   62.69 -148.39   0.0010000
   34.02  116.14  120.01   0.0010000
 -152.73   57.21   55.32   0.0010000
  -25.06  121.29  -33.04   0.0010000
  -17.85  137.91   45.74   0.0010000
   27.60   48.75  138.90   0.0010000
   27.05  111.05  113.20   0.0010000
 -162.11   22.62 -140.50   0.0010000
  -44.18   64.46  122.08   0.0010000
  -32.27   60.18   32.07   0.0010000
   12.36  141.72  136.12   0.0010000
 -144.66  126.20  -51.35   0.0010000
  160.98   34.08  136.16   0.0010000
  -35.29  116.21 -119.75   0.0010000
   55.18  119.99 -144.01   0.0010000
 -132.62  115.32  -61.58   0.0010000
   19.89  144.54  135.54   0.0010000
  -71.43  128.36   33.89   0.0010000
  -73.51   62.53   32.66   0.0010000
 -149.63  130.37  -49.85   0.0010000
 -160.79   43.25 -133.55   0.0010000
   18.41   50.24  139.31   0.0010000
   42.60   81.35   -8.53   0.0010000
 -173.99  119.00 -135.90   0.0010000
   25.06   42.79  -18.95   0.0010000
  140.94   16.44 -133.95   0.0010000
  123.68   75.48 -167.38   0.0010000
  -93.61   60.22  135.75   0.0010000
 -111.91   77.06  169.63   0.0010000
   96.55  118.96  137.89   0.0010000
  159.36  143.89 -135.36   0.0010000
 -124.43  111.86   21.19   0.0010000
 -131.07   67.69   65.63   0.0010000
   59.83   64.43   63.11   0.0010000
  161.21  149.82  -47.81   0.0010000
 -174.52   95.36  -45.71   0.0010000
  -68.97  115.59  -27.05   0.0010000
  117.38   91.16   -2.02   0.0010000
   27.18  126.07   37.59   0.0010000
  -19.72  130.81   49.08   0.0010000
 -121.33  112.81  -67.85   0.0010000
