TEXTURE AT STRAIN =    1.0000
   1.003   4.962   0.189  <-- length of average ellipsoid axes for phase
   90.14    0.18    0.00  <-- Euler angles of average ellipsoid axes for phase
B       500
  121.31   99.96   38.22   0.0010000
 -135.01   40.41   76.88   0.0010000
 -135.79   40.06  -14.61   0.0010000
  132.17  108.50   29.63   0.0010000
  154.70   55.64  -16.45   0.0010000
  -21.55   39.57  -82.72   0.0010000
   34.20  116.00  -22.53   0.0010000
 -118.32  144.26   28.25   0.0010000
  -52.37   75.93  145.61   0.0010000
  -70.31  145.53 -124.09   0.0010000
  -84.64  146.43 -132.11   0.0010000
   86.16  146.17  132.81   0.0010000
   50.50   72.44   31.13   0.0010000
   29.76  119.28  159.93   0.0010000
   44.96  110.48  -27.50   0.0010000
  -80.57   88.93  139.23   0.0010000
   85.69   33.56 -132.49   0.0010000
  130.68   70.85  -29.30   0.0010000
   54.54   74.12 -146.97   0.0010000
  -71.41   34.63  124.93   0.0010000
 -142.82  114.56  -24.10   0.0010000
   47.26  139.97  -76.31   0.0010000
  -71.30   34.67   34.72   0.0010000
 -125.18   37.39  156.58   0.0010000
  127.95   73.99   57.10   0.0010000
  124.16   96.52  -49.26   0.0010000
  -56.34  104.10  -55.07   0.0010000
  -29.78   47.98  174.17   0.0010000
  -77.99   89.27 -132.47   0.0010000
  -32.49  135.48   -0.84   0.0010000
  126.64   74.98   56.04   0.0010000
  -32.95   45.28   -0.27   0.0010000
  152.54  129.38  100.13   0.0010000
  -69.25   86.41 -131.31   0.0010000
  -32.44  136.98  -94.71   0.0010000
   30.69   46.31  -86.67   0.0010000
  -36.06  137.01  175.12   0.0010000
 -139.58   67.19 -154.76   0.0010000
 -125.55   78.29  126.64   0.0010000
   24.01   51.63  102.18   0.0010000
 -135.48  110.90   62.52   0.0010000
  112.26   96.64  129.19   0.0010000
  156.54   47.13  175.50   0.0010000
  -51.78   38.19  110.50   0.0010000
  153.47   52.01 -102.52   0.0010000
 -133.21   70.67 -151.29   0.0010000
  -86.73   33.82   42.87   0.0010000
  128.79   79.64  142.26   0.0010000
  -37.52   44.27 -178.11   0.0010000
  -67.29   35.18 -147.94   0.0010000
  -84.59   33.86  -47.90   0.0010000
  -55.23   79.29  142.44   0.0010000
   48.23  108.71 -119.38   0.0010000
 -133.88  140.86   16.41   0.0010000
   56.50   82.11 -139.83   0.0010000
 -121.17  107.49  -29.98   0.0010000
   70.58   85.36  -49.44   0.0010000
   32.46   44.69   -0.42   0.0010000
    1.76   35.39  -90.34   0.0010000
   48.14   71.00  119.52   0.0010000
  119.41   35.74   28.26   0.0010000
   -0.54  131.58 -179.48   0.0010000
 -123.49   88.46 -136.11   0.0010000
  115.85  144.47 -120.50   0.0010000
  -52.20   79.93 -127.76   0.0010000
 -157.82   52.66 -167.24   0.0010000
  -39.97  138.34  171.51   0.0010000
   34.61  136.04 -176.92   0.0010000
 -121.34   36.83   64.79   0.0010000
 -129.92   72.28 -149.51   0.0010000
   37.12   65.42   24.08   0.0010000
   -1.21  133.03 -179.47   0.0010000
  116.55   35.30  120.06   0.0010000
 -125.90   81.47  -50.90   0.0010000
   52.07  142.12  111.76   0.0010000
    6.18  140.78   91.74   0.0010000
  -46.60  140.20  166.51   0.0010000
 -140.94   42.04   -8.57   0.0010000
  147.63   62.83   67.97   0.0010000
  -49.15  141.49  -18.28   0.0010000
  152.73   47.37  174.36   0.0010000
   94.23   33.55  132.78   0.0010000
  -95.98  146.40   41.59   0.0010000
  -40.94  112.48 -154.06   0.0010000
   -2.17   37.32   91.00   0.0010000
  153.95   49.85  170.25   0.0010000
  146.73   63.59  157.40   0.0010000
   52.89   74.05  122.95   0.0010000
   28.67  120.32   70.70   0.0010000
   35.24   64.40  -66.75   0.0010000
  146.84   43.28    4.17   0.0010000
   86.13   33.55   47.27   0.0010000
  109.97   86.00  138.85   0.0010000
   35.56  115.64 -112.83   0.0010000
  -39.97  112.98   25.48   0.0010000
 -115.12  144.76  -59.65   0.0010000
  117.50  144.25  150.42   0.0010000
   58.71   84.37  -48.17   0.0010000
  118.35   92.18  -46.52   0.0010000
  179.61   55.60   89.33   0.0010000
   56.22   89.57  -45.10   0.0010000
  175.35   48.86   88.75   0.0010000
  142.45   43.94    1.83   0.0010000
  143.28  132.64   93.83   0.0010000
   34.61  115.95   67.42   0.0010000
  127.62   96.75  -49.83   0.0010000
   84.51   33.59  -41.81   0.0010000
  -36.30   38.09  106.28   0.0010000
   26.56  124.89 -105.42   0.0010000
  -36.22   65.23 -113.53   0.0010000
  -40.48   42.08  -82.20   0.0010000
   48.43  108.70   60.61   0.0010000
  -59.72   92.78  133.56   0.0010000
 -137.52   68.27 -153.74   0.0010000
  116.61   81.24 -128.97   0.0010000
  136.82  138.85  -10.42   0.0010000
   60.60   81.46   39.68   0.0010000
  -60.45   36.20  -62.26   0.0010000
 -151.48  129.67  -10.16   0.0010000
   53.14  141.61   18.98   0.0010000
  -27.70   41.59    6.92   0.0010000
   14.18  130.35   85.52   0.0010000
   34.10   63.61 -157.37   0.0010000
  -96.73   81.06 -166.13   0.0010000
  148.49  136.47   -4.09   0.0010000
   83.51  146.09   41.28   0.0010000
   87.29   89.21  -50.99   0.0010000
  147.25  133.19  -86.69   0.0010000
  154.57   47.96  -96.67   0.0010000
  -37.51  138.88 -100.24   0.0010000
   19.39   48.13    5.05   0.0010000
 -126.93   79.74  127.67   0.0010000
   39.89  113.05 -115.02   0.0010000
  -82.29   33.94  -49.27   0.0010000
 -151.01  134.73  178.98   0.0010000
 -106.46   91.09  -43.72   0.0010000
  -48.11   71.22   60.69   0.0010000
  145.13   64.35  156.80   0.0010000
  -62.79   94.61   42.13   0.0010000
   31.77  117.79  158.83   0.0010000
  -57.32  144.07  152.58   0.0010000
  145.71  116.35  112.27   0.0010000
 -158.00   46.00   91.01   0.0010000
   78.68   33.85   51.45   0.0010000
 -153.92  123.74   72.99   0.0010000
  134.08  109.74   28.28   0.0010000
  146.59   46.54   86.64   0.0010000
  112.42   91.33  133.44   0.0010000
   12.16  125.09 -100.23   0.0010000
   98.02   89.75  134.82   0.0010000
 -152.56  123.85   73.17   0.0010000
  -52.66  103.04  -54.22   0.0010000
   46.91   70.34   28.79   0.0010000
 -125.52   98.54   50.53   0.0010000
 -116.63   92.61 -133.42   0.0010000
  120.43  143.61  153.01   0.0010000
 -114.23  144.84  -59.32   0.0010000
   29.75  136.57    3.88   0.0010000
  166.88  128.43   97.03   0.0010000
  146.76  116.39 -157.77   0.0010000
   27.57  122.81   72.69   0.0010000
  150.13   60.36  159.79   0.0010000
 -126.24   85.54   41.81   0.0010000
 -145.42  137.41 -173.94   0.0010000
   63.70   91.26   46.10   0.0010000
   52.97  104.24   55.76   0.0010000
   23.43   43.17   87.70   0.0010000
  109.47   34.44  124.24   0.0010000
  105.60   86.02  140.31   0.0010000
  128.25   73.35  147.81   0.0010000
  -47.50   71.18 -119.28   0.0010000
  -48.97  141.83  -19.54   0.0010000
 -149.59   43.53  176.19   0.0010000
 -121.68   94.79  -42.36   0.0010000
  -93.40  146.46   42.91   0.0010000
  129.39   73.36  -32.18   0.0010000
  145.17  115.54  112.90   0.0010000
 -149.35  133.25  175.84   0.0010000
 -125.10   82.69  -49.95   0.0010000
  139.26   67.40 -115.83   0.0010000
  -33.47   47.79   85.13   0.0010000
  117.52   98.71 -141.12   0.0010000
 -150.24  128.28   78.28   0.0010000
 -122.53   89.61 -135.38   0.0010000
  129.15  106.95  121.37   0.0010000
  130.50   39.22   14.73   0.0010000
 -164.88   46.31 -179.42   0.0010000
   40.02  112.99   64.92   0.0010000
 -141.92   66.05 -155.77   0.0010000
  133.58  109.46  -61.43   0.0010000
 -149.80   61.05  -69.69   0.0010000
  149.94   44.18  -88.40   0.0010000
  -61.95  144.33  -28.52   0.0010000
  -72.64   86.63   49.44   0.0010000
  -53.82   77.85  143.75   0.0010000
   48.15  108.95  -29.12   0.0010000
  119.27  143.87  151.97   0.0010000
   78.94  145.89  128.83   0.0010000
   63.36  144.23 -150.45   0.0010000
 -134.25   69.85   27.83   0.0010000
   76.68  145.75  127.62   0.0010000
  -22.41  134.59    1.03   0.0010000
   39.03  113.50 -114.62   0.0010000
  111.88   83.97 -129.95   0.0010000
  -23.76  126.74   14.09   0.0010000
   48.80   71.38  -60.06   0.0010000
  123.44  142.88  -24.13   0.0010000
 -132.14  109.25  -29.23   0.0010000
   87.74   33.52   46.39   0.0010000
  -55.33  104.90  -55.88   0.0010000
  -48.73   71.46 -119.57   0.0010000
 -133.55   40.23  -13.21   0.0010000
  -40.04  140.15 -103.93   0.0010000
   17.13   51.74 -169.77   0.0010000
  -10.81  138.54  178.63   0.0010000
  123.29   92.92  -46.90   0.0010000
   40.09  112.92 -115.14   0.0010000
   53.81   37.43  158.05   0.0010000
   26.77   57.96 -161.56   0.0010000
 -152.67   49.58 -171.30   0.0010000
   71.43  145.30  -55.39   0.0010000
 -147.88   62.57   21.44   0.0010000
 -145.93   63.75 -157.65   0.0010000
  -35.12  115.89  -66.98   0.0010000
  -39.80   67.13  154.82   0.0010000
  127.62  104.70 -146.21   0.0010000
  -26.48  125.45 -164.68   0.0010000
  -20.94   48.28   -5.30   0.0010000
 -119.92   35.35 -120.61   0.0010000
 -167.36   55.44  -78.82   0.0010000
  -52.27   73.55 -121.93   0.0010000
  -13.49   48.85   -2.99   0.0010000
  152.12  138.34   83.15   0.0010000
  138.44   67.83   63.76   0.0010000
 -135.99  139.46 -168.42   0.0010000
 -171.43  124.16   82.48   0.0010000
  162.42  131.45  -85.59   0.0010000
 -123.62  102.06  143.14   0.0010000
   57.17  100.36 -127.90   0.0010000
 -135.32   69.38 -152.65   0.0010000
   20.87   50.99   10.83   0.0010000
   29.23   56.27  -73.24   0.0010000
   41.84  138.07   97.97   0.0010000
  -93.24  146.46 -136.91   0.0010000
  -30.12   61.48 -110.63   0.0010000
  -30.67  118.51  111.04   0.0010000
 -125.75   79.58 -142.32   0.0010000
  108.39  145.36 -124.90   0.0010000
 -123.96  101.08   52.31   0.0010000
  -49.72  108.39 -149.80   0.0010000
  -91.52   91.43   69.39   0.0010000
  138.19   67.94 -116.35   0.0010000
 -129.56   71.75 -150.15   0.0010000
  -27.51   58.46  161.64   0.0010000
   30.35   50.03   99.40   0.0010000
  157.05   43.91    1.16   0.0010000
  -75.21  146.08 -127.61   0.0010000
   48.74   72.12   30.76   0.0010000
  -33.66  135.49  -90.79   0.0010000
  127.02   97.05 -139.96   0.0010000
 -137.76   68.15 -153.87   0.0010000
  -78.68   91.00  -46.96   0.0010000
  -34.16  137.09   84.78   0.0010000
  139.66   41.79   97.85   0.0010000
  -85.75  146.45 -132.80   0.0010000
   33.65   44.45  -90.96   0.0010000
  -50.87  141.81  -19.23   0.0010000
  -71.54  145.67   55.11   0.0010000
 -135.25   69.46  -62.56   0.0010000
  -54.67   79.27 -127.50   0.0010000
  -51.77  106.13  122.76   0.0010000
 -124.74  142.50  -68.85   0.0010000
 -125.15   84.88  -48.50   0.0010000
  -62.39   91.01  134.51   0.0010000
  -98.39   90.27  134.88   0.0010000
  -30.50  132.27  -84.17   0.0010000
 -138.05  112.14  -26.26   0.0010000
  170.97  134.01   -0.03   0.0010000
  122.09  143.27  154.32   0.0010000
   52.21  106.07   57.66   0.0010000
 -122.90  143.21  -65.86   0.0010000
  138.07   68.03  -26.43   0.0010000
 -113.00  145.07 -148.26   0.0010000
   48.13   70.91  119.41   0.0010000
 -112.48  145.14 -147.91   0.0010000
 -121.23   91.34  -44.40   0.0010000
   30.00  119.34   69.97   0.0010000
  135.40   69.35   62.25   0.0010000
  -40.15  112.87 -154.42   0.0010000
   41.26   39.84  165.89   0.0010000
  -68.15  145.24   57.43   0.0010000
  -34.47   45.19  179.97   0.0010000
   53.37   74.51 -146.55   0.0010000
  -33.95   63.75  -22.34   0.0010000
  120.10  143.76 -117.60   0.0010000
  -30.45   61.62  159.27   0.0010000
  133.52  109.46 -151.42   0.0010000
 -113.77   91.71  136.22   0.0010000
  165.52  136.40   88.62   0.0010000
 -151.38  122.80  162.31   0.0010000
   27.41   50.73   10.86   0.0010000
   70.07   34.65   56.85   0.0010000
  -56.88   36.97  114.81   0.0010000
 -153.97  128.55  -11.91   0.0010000
    1.22  140.68   90.56   0.0010000
  -48.29   71.54 -119.67   0.0010000
  -41.62   68.06  153.95   0.0010000
 -117.18  100.19  142.00   0.0010000
  153.49  121.52 -161.62   0.0010000
  -93.66   91.62   55.79   0.0010000
   32.59  132.93   86.16   0.0010000
  -52.96  101.67  126.97   0.0010000
 -149.79   50.46   99.54   0.0010000
 -150.75  126.81  166.46   0.0010000
 -120.63   37.38  158.69   0.0010000
   59.98   79.98 -141.45   0.0010000
  -30.40   61.76   69.17   0.0010000
 -145.55   63.84  112.42   0.0010000
  -53.19  104.06 -145.10   0.0010000
 -157.98   58.87   18.43   0.0010000
  -33.39  136.83   -4.48   0.0010000
  116.72   80.92 -128.74   0.0010000
  -43.26   68.90  153.13   0.0010000
  110.23  145.17 -123.82   0.0010000
  -32.58   42.68 -173.72   0.0010000
  -37.27   65.80 -114.01   0.0010000
  -32.42  131.70   96.38   0.0010000
    1.96  114.49   -0.22   0.0010000
  113.83   80.56  -37.50   0.0010000
 -179.29   77.43    4.04   0.0010000
  -53.70   79.16   52.66   0.0010000
   34.90  115.78 -112.72   0.0010000
   98.67  146.03   49.70   0.0010000
 -104.26   34.35  -36.88   0.0010000
   26.82  125.40   75.10   0.0010000
 -133.07   70.49  118.51   0.0010000
  -44.79  139.74   77.71   0.0010000
   64.17   86.02 -137.59   0.0010000
  -40.55   67.56 -115.58   0.0010000
 -154.40  121.78  -18.64   0.0010000
  106.77   34.21   35.70   0.0010000
   56.96   86.17 -137.14   0.0010000
   92.32   33.52   43.86   0.0010000
  -10.98  135.91   -0.03   0.0010000
  121.69   94.12   42.44   0.0010000
  147.31  132.57 -175.60   0.0010000
   60.77   76.78   35.53   0.0010000
 -175.85  135.80   -0.28   0.0010000
   47.29   70.55 -150.99   0.0010000
 -130.12  107.51   58.82   0.0010000
  133.14  139.90 -103.32   0.0010000
 -125.15   92.99   46.82   0.0010000
  -39.23  113.35  115.14   0.0010000
   92.55   89.49 -131.54   0.0010000
  117.77   35.54 -150.94   0.0010000
 -100.06   93.72  143.03   0.0010000
   24.61  123.69  -16.59   0.0010000
 -105.64   34.48   53.99   0.0010000
 -129.29   73.62   31.98   0.0010000
 -110.86   34.95 -123.26   0.0010000
  175.94  113.06   95.33   0.0010000
  -55.31   75.92   55.52   0.0010000
  152.32  130.59 -171.61   0.0010000
 -163.99  133.71  -91.53   0.0010000
  151.04   51.99  167.89   0.0010000
  146.93  136.35   -4.02   0.0010000
   37.65  114.23 -113.99   0.0010000
  126.77   85.97  137.61   0.0010000
  -79.57  146.23  -39.30   0.0010000
  -42.18  111.86 -153.47   0.0010000
  131.85  140.79  -17.05   0.0010000
  137.06   68.49  153.12   0.0010000
 -128.89   72.84  -58.88   0.0010000
  -93.19   33.82  -43.18   0.0010000
   26.11  134.77  -90.02   0.0010000
   48.19   70.96  -60.54   0.0010000
 -113.40  145.04 -148.38   0.0010000
   20.75   45.70  -88.69   0.0010000
   65.42   35.07  -31.11   0.0010000
  -32.15   62.79   68.40   0.0010000
 -131.91   70.96  -60.99   0.0010000
  -31.25  134.97   90.45   0.0010000
 -125.29  142.46 -158.79   0.0010000
 -139.69   42.36   83.04   0.0010000
  -54.32  110.24   25.73   0.0010000
   32.76  117.02  158.25   0.0010000
   34.82  115.71  -22.77   0.0010000
   90.48   33.51 -135.15   0.0010000
  125.83  141.99   69.74   0.0010000
  125.24  101.57  126.81   0.0010000
  156.15  136.93  176.68   0.0010000
  128.59  106.41  -58.03   0.0010000
 -124.30   76.93  -54.53   0.0010000
  141.92   66.03  155.40   0.0010000
   37.11  114.21   66.00   0.0010000
 -124.82  142.38  -69.48   0.0010000
  -82.63  146.37  -41.07   0.0010000
  150.68   47.48  -95.62   0.0010000
   84.85   33.58   47.96   0.0010000
   54.49   75.05  -55.95   0.0010000
  113.14   34.47 -146.38   0.0010000
 -109.31   34.83   56.08   0.0010000
 -146.81   63.35   22.03   0.0010000
 -144.14   41.97   -8.61   0.0010000
   44.21   69.01 -152.61   0.0010000
 -129.69  105.59  -33.17   0.0010000
 -150.31  133.64  -93.53   0.0010000
 -151.33  122.98  162.48   0.0010000
 -150.78   59.49 -160.85   0.0010000
  -94.37   90.31   45.15   0.0010000
 -142.48  114.36   65.73   0.0010000
  140.09  139.37  -12.79   0.0010000
  -42.51   68.51 -116.49   0.0010000
    1.07   60.12  -89.32   0.0010000
  111.51  145.00 -122.96   0.0010000
   23.50   45.67 -178.51   0.0010000
  -57.34   99.04   39.38   0.0010000
  -53.35  102.93 -144.06   0.0010000
 -147.55   44.73  178.95   0.0010000
   63.04  144.32  -60.09   0.0010000
   68.67  145.02  123.08   0.0010000
  114.36   96.83 -140.37   0.0010000
  -28.89  131.97 -173.38   0.0010000
  132.33  140.36 -105.17   0.0010000
  -27.15   58.58   71.55   0.0010000
 -126.87  106.26  147.38   0.0010000
 -149.31  129.74   -9.64   0.0010000
 -158.09  133.94  -91.96   0.0010000
  -77.98  146.14  141.58   0.0010000
   24.87   52.41   13.12   0.0010000
  151.67  132.38   95.41   0.0010000
   53.38   74.50 -146.56   0.0010000
  135.86  138.77  170.44   0.0010000
  -73.04   34.37 -143.55   0.0010000
  143.80   65.21  -23.90   0.0010000
  -23.11   40.43  -83.10   0.0010000
   54.60   76.38  125.36   0.0010000
 -136.75   41.91   -7.50   0.0010000
  -50.89   72.56  149.19   0.0010000
 -142.79   65.53   23.78   0.0010000
  111.60   97.84  127.87   0.0010000
   49.50  108.09  -30.08   0.0010000
   30.38   61.93   21.36   0.0010000
  -23.60  126.17  104.70   0.0010000
   26.58  139.93 -171.34   0.0010000
  -77.48  146.12  141.83   0.0010000
 -139.18   40.90  167.95   0.0010000
   71.88   88.66  -46.44   0.0010000
  -68.25   84.28  140.18   0.0010000
  125.63   37.62  110.71   0.0010000
  133.53   38.76   17.63   0.0010000
   56.13   95.02   48.29   0.0010000
  133.20   39.41   15.19   0.0010000
  149.42  118.17 -159.12   0.0010000
  135.94   40.13  -76.89   0.0010000
  150.37  127.68  -78.05   0.0010000
  -93.88   33.83  -42.81   0.0010000
 -126.24   74.31  122.76   0.0010000
  149.47   61.70   68.81   0.0010000
  -56.80   96.26 -138.66   0.0010000
   47.58   70.81  119.31   0.0010000
 -172.85  115.17   80.03   0.0010000
   12.76  125.86   -9.92   0.0010000
  -57.17  143.06  -23.20   0.0010000
   38.99   66.38  114.90   0.0010000
   26.58  133.29   86.58   0.0010000
  151.54   40.41  -81.44   0.0010000
  -52.22   75.69  145.84   0.0010000
  -32.85   46.79   -3.26   0.0010000
   54.01  141.83 -160.26   0.0010000
 -120.38  144.04  -62.59   0.0010000
 -147.97   42.31   83.18   0.0010000
  -29.35  130.69  -81.51   0.0010000
   53.59  103.79 -124.71   0.0010000
 -153.12  120.73 -109.43   0.0010000
  -32.62  137.41   84.26   0.0010000
  -77.48  146.12   51.78   0.0010000
  -58.33   94.89   42.29   0.0010000
 -119.53  144.18  -62.06   0.0010000
  143.20   43.34  -86.44   0.0010000
  -26.26   58.14  161.89   0.0010000
   31.27   61.99   21.42   0.0010000
 -146.22  116.45 -112.59   0.0010000
   43.16   41.29   -8.75   0.0010000
  157.28   42.57 -176.93   0.0010000
  112.98   96.39 -140.38   0.0010000
 -101.87   34.16  141.61   0.0010000
 -108.96   92.89  138.00   0.0010000
  123.66   98.92  129.03   0.0010000
 -151.38  137.14  -85.91   0.0010000
 -146.56  116.69  -22.40   0.0010000
 -151.05   59.97  109.52   0.0010000
   28.42   55.85  106.45   0.0010000
 -149.89  138.28    6.77   0.0010000
 -139.96  112.95  -25.51   0.0010000
  -33.68  116.40   22.62   0.0010000
  116.48   80.55  -38.36   0.0010000
   41.02  112.47   64.44   0.0010000
   24.95  124.66   74.31   0.0010000
 -125.24   76.62  -54.85   0.0010000
